# Spatial Power Spectra n_freqs=21, n_kper=25
# Freq (MHz), k_per (h cMpc^-1), Baseline (lambda), P (K^2 h^-2 cMpc^2), P_err (K^2 h^-2 cMpc^2), N_eff
# 
   115.000000      0.048475     51.329030  12614.949219   2473.994873     52.000000
   115.500000      0.048475     59.329030   9474.457031   1461.940063     84.000000
   116.000000      0.048475     67.329030   6889.108398    920.595215    112.000000
   116.500000      0.048475     75.329030   5216.251953    723.363831    104.000000
   117.000000      0.048475     83.329030   4063.183594    500.143219    132.000000
   117.500000      0.048475     91.329030   3234.384033    381.176025    144.000000
   118.000000      0.048475     99.329030   2626.864258    313.970306    140.000000
   118.500000      0.048475    107.329030   2160.344727    230.293320    176.000000
   119.000000      0.048475    115.329030   1797.856934    196.162308    168.000000
   119.500000      0.048475    123.329030   1516.543579    153.194229    196.000000
   120.000000      0.048475    131.329030   1288.157104    128.815613    200.000000
   120.500000      0.048475    139.329030   1124.642944    114.783386    192.000000
   121.000000      0.048475    147.329030    976.756836     88.431320    244.000000
   121.500000      0.048475    155.329030    850.083435     78.928299    232.000000
   122.000000      0.048475    163.329030    744.671387     63.390583    276.000000
   122.500000      0.048475    171.329030    658.285034     59.115849    248.000000
   123.000000      0.048475    179.329030    593.974854     52.500427    256.000000
   123.500000      0.048475    187.329030    533.878113     43.021179    308.000000
   124.000000      0.048475    195.329030    476.806122     39.733875    288.000000
   124.500000      0.048475    203.329030    432.956970     34.444221    316.000000
   125.000000      0.048475    211.329030    392.945618     31.460810    312.000000
   115.000000      0.056030    219.329030    359.067657     28.038513    328.000000
   115.500000      0.056030    227.329030    329.386841     24.970705    348.000000
   116.000000      0.056030    235.329030    300.983276     22.433975    360.000000
   116.500000      0.056030    243.329030    282.281616     28.810253    192.000000
   117.000000      0.056030     51.329030  12338.435547   2419.765869     52.000000
   117.500000      0.056030     59.329030   9267.009766   1429.931030     84.000000
   118.000000      0.056030     67.329030   6738.672363    900.492432    112.000000
   118.500000      0.056030     75.329030   5101.927734    707.509827    104.000000
   119.000000      0.056030     83.329030   3974.217773    489.191956    132.000000
   119.500000      0.056030     91.329030   3163.206055    372.787201    144.000000
   120.000000      0.056030     99.329030   2569.019043    307.056305    140.000000
   120.500000      0.056030    107.329030   2112.891602    225.234909    176.000000
   121.000000      0.056030    115.329030   1758.382324    191.855316    168.000000
   121.500000      0.056030    123.329030   1483.275513    149.833389    196.000000
   122.000000      0.056030    131.329030   1259.998413    125.999931    200.000000
   122.500000      0.056030    139.329030   1099.941895    112.262291    192.000000
   123.000000      0.056030    147.329030    955.334656     86.491852    244.000000
   123.500000      0.056030    155.329030    831.470886     77.200142    232.000000
   124.000000      0.056030    163.329030    728.380798     62.003845    276.000000
   124.500000      0.056030    171.329030    643.901489     57.823963    248.000000
   125.000000      0.056030    179.329030    580.945435     51.348850    256.000000
   115.000000      0.063585    187.329030    522.147095     42.075874    308.000000
   115.500000      0.063585    195.329030    466.375671     38.864647    288.000000
   116.000000      0.063585    203.329030    423.462219     33.688828    316.000000
   116.500000      0.063585    211.329030    384.342285     30.772024    312.000000
   117.000000      0.063585    219.329030    351.199829     27.424068    328.000000
   117.500000      0.063585    227.329030    322.157043     24.422668    348.000000
   118.000000      0.063585    235.329030    294.394104     21.942841    360.000000
   118.500000      0.063585    243.329030    276.098572     28.179188    192.000000
   119.000000      0.063585     51.329030  12069.143555   2366.953369     52.000000
   119.500000      0.063585     59.329030   9064.980469   1398.756592     84.000000
   120.000000      0.063585     67.329030   6592.152344    880.913330    112.000000
   120.500000      0.063585     75.329030   4990.589844    692.070496    104.000000
   121.000000      0.063585     83.329030   3887.571533    478.526794    132.000000
   121.500000      0.063585     91.329030   3093.894043    364.619049    144.000000
   122.000000      0.063585     99.329030   2512.691406    300.324097    140.000000
   122.500000      0.063585    107.329030   2066.680420    220.309036    176.000000
   123.000000      0.063585    115.329030   1719.939697    187.660629    168.000000
   123.500000      0.063585    123.329030   1450.876953    146.560806    196.000000
   124.000000      0.063585    131.329030   1232.574219    123.257416    200.000000
   124.500000      0.063585    139.329030   1075.887329    109.807213    192.000000
   125.000000      0.063585    147.329030    934.472534     84.603264    244.000000
   115.000000      0.071141    155.329030    813.344666     75.517105    232.000000
   115.500000      0.071141    163.329030    712.515503     60.653275    276.000000
   116.000000      0.071141    171.329030    629.892822     56.565964    248.000000
   116.500000      0.071141    179.329030    568.256714     50.227245    256.000000
   117.000000      0.071141    187.329030    510.723938     41.155231    308.000000
   117.500000      0.071141    195.329030    456.217712     38.018150    288.000000
   118.000000      0.071141    203.329030    414.215668     32.953259    316.000000
   118.500000      0.071141    211.329030    375.963379     30.101110    312.000000
   119.000000      0.071141    219.329030    343.537262     26.825733    328.000000
   119.500000      0.071141    227.329030    315.115662     23.888836    348.000000
   120.000000      0.071141    235.329030    287.976959     21.464504    360.000000
   120.500000      0.071141    243.329030    270.077118     27.564655    192.000000
   121.000000      0.071141     51.329030  11806.856445   2315.515137     52.000000
   121.500000      0.071141     59.329030   8868.199219   1368.392944     84.000000
   122.000000      0.071141     67.329030   6449.434082    861.841858    112.000000
   122.500000      0.071141     75.329030   4882.147949    677.032166    104.000000
   123.000000      0.071141     83.329030   3803.179688    468.139313    132.000000
   123.500000      0.071141     91.329030   3026.392334    356.663818    144.000000
   124.000000      0.071141     99.329030   2457.834961    293.767548    140.000000
   124.500000      0.071141    107.329030   2021.674316    215.511368    176.000000
   125.000000      0.071141    115.329030   1682.497925    183.575424    168.000000
   115.000000      0.078696    123.329030   1419.321533    143.372955    196.000000
   115.500000      0.078696    131.329030   1205.861206    120.586052    200.000000
   116.000000      0.078696    139.329030   1052.459229    107.416275    192.000000
   116.500000      0.078696    147.329030    914.154114     82.763664    244.000000
   117.000000      0.078696    155.329030    795.689331     73.877861    232.000000
   117.500000      0.078696    163.329030    697.061707     59.337914    276.000000
   118.000000      0.078696    171.329030    616.247803     55.340721    248.000000
   118.500000      0.078696    179.329030    555.897888     49.134892    256.000000
   119.000000      0.078696    187.329030    499.597839     40.258820    308.000000
   119.500000      0.078696    195.329030    446.323029     37.193558    288.000000
   120.000000      0.078696    203.329030    405.209839     32.236748    316.000000
   120.500000      0.078696    211.329030    367.802460     29.447762    312.000000
   121.000000      0.078696    219.329030    336.073944     26.242926    328.000000
   121.500000      0.078696    227.329030    308.258057     23.368946    348.000000
   122.000000      0.078696    235.329030    281.726685     20.998678    360.000000
   122.500000      0.078696    243.329030    264.211945     26.966030    192.000000
   123.000000      0.078696     51.329030  11551.358398   2265.408203     52.000000
   123.500000      0.078696     59.329030   8676.508789   1338.814697     84.000000
   124.000000      0.078696     67.329030   6310.395508    843.262146    112.000000
   124.500000      0.078696     75.329030   4776.513184    662.382996    104.000000
   125.000000      0.078696     83.329030   3720.968750    458.019562    132.000000
   115.000000      0.086251     91.329030   2960.643799    348.915039    144.000000
   115.500000      0.086251     99.329030   2404.403564    287.381073    140.000000
   116.000000      0.086251    107.329030   1977.834961    210.838028    176.000000
   116.500000      0.086251    115.329030   1646.028198    179.596207    168.000000
   117.000000      0.086251    123.329030   1388.583740    140.268036    196.000000
   117.500000      0.086251    131.329030   1179.838745    117.983849    200.000000
   118.000000      0.086251    139.329030   1029.639282    105.087166    192.000000
   118.500000      0.086251    147.329030    894.361145     80.971802    244.000000
   119.000000      0.086251    155.329030    778.490967     72.281090    232.000000
   119.500000      0.086251    163.329030    682.007324     58.056366    276.000000
   120.000000      0.086251    171.329030    602.954834     54.146999    248.000000
   120.500000      0.086251    179.329030    543.860352     48.070942    256.000000
   121.000000      0.086251    187.329030    488.760773     39.385490    308.000000
   121.500000      0.086251    195.329030    436.684662     36.390362    288.000000
   122.000000      0.086251    203.329030    396.437347     31.538893    316.000000
   122.500000      0.086251    211.329030    359.852631     28.811310    312.000000
   123.000000      0.086251    219.329030    328.803925     25.675243    328.000000
   123.500000      0.086251    227.329030    301.578491     22.862597    348.000000
   124.000000      0.086251    235.329030    275.637970     20.544809    360.000000
   124.500000      0.086251    243.329030    258.498840     26.382946    192.000000
   125.000000      0.086251     51.329030  11302.447266   2216.592529     52.000000
   115.000000      0.093806     59.329030   8489.756836   1309.998291     84.000000
   115.500000      0.093806     67.329030   6174.932129    825.160461    112.000000
   116.000000      0.093806     75.329030   4673.600586    648.112061    104.000000
   116.500000      0.093806     83.329030   3640.876709    448.160492    132.000000
   117.000000      0.093806     91.329030   2896.595459    341.366974    144.000000
   117.500000      0.093806     99.329030   2352.354004    281.160004    140.000000
   118.000000      0.093806    107.329030   1935.127319    206.285233    176.000000
   118.500000      0.093806    115.329030   1610.499023    175.719803    168.000000
   119.000000      0.093806    123.329030   1358.638916    137.243271    196.000000
   119.500000      0.093806    131.329030   1154.485352    115.448517    200.000000
   120.000000      0.093806    139.329030   1007.408691    102.818146    192.000000
   120.500000      0.093806    147.329030    875.079285     79.225983    244.000000
   121.000000      0.093806    155.329030    761.735535     70.725441    232.000000
   121.500000      0.093806    163.329030    667.340820     56.807816    276.000000
   122.000000      0.093806    171.329030    590.003967     52.983955    248.000000
   122.500000      0.093806    179.329030    532.132324     47.034264    256.000000
   123.000000      0.093806    187.329030    478.203583     38.534760    308.000000
   123.500000      0.093806    195.329030    427.293976     35.607800    288.000000
   124.000000      0.093806    203.329030    387.891083     30.858969    316.000000
   124.500000      0.093806    211.329030    352.107330     28.191128    312.000000
   125.000000      0.093806    219.329030    321.721161     25.122219    328.000000
   115.000000      0.101361    227.329030    295.071045     22.369303    348.000000
   115.500000      0.101361    235.329030    269.705963     20.102663    360.000000
   116.000000      0.101361    243.329030    252.932861     25.814825    192.000000
   116.500000      0.101361     51.329030  11059.927734   2169.030762     52.000000
   117.000000      0.101361     59.329030   8307.794922   1281.921143     84.000000
   117.500000      0.101361     67.329030   6042.936035    807.521118    112.000000
   118.000000      0.101361     75.329030   4573.332520    634.207031    104.000000
   118.500000      0.101361     83.329030   3562.839111    438.554871    132.000000
   119.000000      0.101361     91.329030   2834.198242    334.013550    144.000000
   119.500000      0.101361     99.329030   2301.647217    275.099243    140.000000
   120.000000      0.101361    107.329030   1893.519409    201.849823    176.000000
   120.500000      0.101361    115.329030   1575.884888    171.943008    168.000000
   121.000000      0.101361    123.329030   1329.464233    134.296066    196.000000
   121.500000      0.101361    131.329030   1129.781982    112.978142    200.000000
   122.000000      0.101361    139.329030    985.749512    100.607681    192.000000
   122.500000      0.101361    147.329030    856.292908     77.525070    244.000000
   123.000000      0.101361    155.329030    745.409851     69.209648    232.000000
   123.500000      0.101361    163.329030    653.050415     55.591343    276.000000
   124.000000      0.101361    171.329030    577.384705     51.850655    248.000000
   124.500000      0.101361    179.329030    520.706543     46.024406    256.000000
   125.000000      0.101361    187.329030    467.918304     37.705986    308.000000
   115.000000      0.108916    195.329030    418.144470     34.845352    288.000000
   115.500000      0.108916    203.329030    379.564606     30.196480    316.000000
   116.000000      0.108916    211.329030    344.561066     27.586926    312.000000
   116.500000      0.108916    219.329030    314.820435     24.583324    328.000000
   117.000000      0.108916    227.329030    288.731110     21.888655    348.000000
   117.500000      0.108916    235.329030    263.926575     19.671888    360.000000
   118.000000      0.108916    243.329030    247.509857     25.261395    192.000000
   118.500000      0.108916     51.329030  10823.615234   2122.684814     52.000000
   119.000000      0.108916     59.329030   8130.484863   1254.561035     84.000000
   119.500000      0.108916     67.329030   5914.307129    790.332336    112.000000
   120.000000      0.108916     75.329030   4475.629395    620.658142    104.000000
   120.500000      0.108916     83.329030   3486.796631    429.194916    132.000000
   121.000000      0.108916     91.329030   2773.403320    326.848511    144.000000
   121.500000      0.108916     99.329030   2252.242920    269.194336    140.000000
   122.000000      0.108916    107.329030   1852.976074    197.527771    176.000000
   122.500000      0.108916    115.329030   1542.156616    168.263123    168.000000
   123.000000      0.108916    123.329030   1301.034790    131.424469    196.000000
   123.500000      0.108916    131.329030   1105.708862    110.570892    200.000000
   124.000000      0.108916    139.329030    964.645752     98.453690    192.000000
   124.500000      0.108916    147.329030    837.987244     75.867729    244.000000
   125.000000      0.108916    155.329030    729.501831     67.732498    232.000000
   115.000000      0.116472    163.329030    639.125183     54.405949    276.000000
   115.500000      0.116472    171.329030    565.087524     50.746429    248.000000
   116.000000      0.116472    179.329030    509.572571     45.040241    256.000000
   116.500000      0.116472    187.329030    457.896423     36.898327    308.000000
   117.000000      0.116472    195.329030    409.228424     34.102348    288.000000
   117.500000      0.116472    203.329030    371.451202     29.551104    316.000000
   118.000000      0.116472    211.329030    337.207703     26.998270    312.000000
   118.500000      0.116472    219.329030    308.096130     24.058233    328.000000
   119.000000      0.116472    227.329030    282.553497     21.420341    348.000000
   119.500000      0.116472    235.329030    258.294647     19.252127    360.000000
   120.000000      0.116472    243.329030    242.225418     24.722006    192.000000
   120.500000      0.116472     51.329030  10593.318359   2077.521240     52.000000
   121.000000      0.116472     59.329030   7957.686523   1227.897339     84.000000
   121.500000      0.116472     67.329030   5788.941895    773.580200    112.000000
   122.000000      0.116472     75.329030   4380.413086    607.454224    104.000000
   122.500000      0.116472     83.329030   3412.688477    420.072693    132.000000
   123.000000      0.116472     91.329030   2714.161133    319.867279    144.000000
   123.500000      0.116472     99.329030   2204.101318    263.440613    140.000000
   124.000000      0.116472    107.329030   1813.468506    193.316391    176.000000
   124.500000      0.116472    115.329030   1509.288330    164.676727    168.000000
   125.000000      0.116472    123.329030   1273.331665    128.626022    196.000000
   115.000000      0.124027    131.329030   1082.246704    108.224548    200.000000
   115.500000      0.124027    139.329030    944.080261     96.354866    192.000000
   116.000000      0.124027    147.329030    820.147705     74.252754    244.000000
   116.500000      0.124027    155.329030    713.998535     66.293060    232.000000
   117.000000      0.124027    163.329030    625.553772     53.250614    276.000000
   117.500000      0.124027    171.329030    553.102905     49.670074    248.000000
   118.000000      0.124027    179.329030    498.722748     44.081329    256.000000
   118.500000      0.124027    187.329030    448.130432     36.111370    308.000000
   119.000000      0.124027    195.329030    400.539154     33.378273    288.000000
   119.500000      0.124027    203.329030    363.544037     28.921961    316.000000
   120.000000      0.124027    211.329030    330.041260     26.424469    312.000000
   120.500000      0.124027    219.329030    301.543213     23.546576    328.000000
   121.000000      0.124027    227.329030    276.533356     20.963923    348.000000
   121.500000      0.124027    235.329030    252.806091     18.843071    360.000000
   122.000000      0.124027    243.329030    237.075668     24.196463    192.000000
   122.500000      0.124027     51.329030  10368.860352   2033.500610     52.000000
   123.000000      0.124027     59.329030   7789.263184   1201.909546     84.000000
   123.500000      0.124027     67.329030   5666.744141    757.250061    112.000000
   124.000000      0.124027     75.329030   4287.608887    594.584106    104.000000
   124.500000      0.124027     83.329030   3340.457520    411.181610    132.000000
   125.000000      0.124027     91.329030   2656.425781    313.062958    144.000000
   115.000000      0.131582     99.329030   2157.184570    257.832947    140.000000
   115.500000      0.131582    107.329030   1774.963867    189.211868    176.000000
   116.000000      0.131582    115.329030   1477.255493    161.181702    168.000000
   116.500000      0.131582    123.329030   1246.330811    125.898552    196.000000
   117.000000      0.131582    131.329030   1059.379150    105.937782    200.000000
   117.500000      0.131582    139.329030    924.037048     94.309097    192.000000
   118.000000      0.131582    147.329030    802.761292     72.678528    244.000000
   118.500000      0.131582    155.329030    698.887634     64.890007    232.000000
   119.000000      0.131582    163.329030    612.325684     52.124668    276.000000
   119.500000      0.131582    171.329030    541.421204     48.621117    248.000000
   120.000000      0.131582    179.329030    488.148193     43.146660    256.000000
   120.500000      0.131582    187.329030    438.612427     35.344421    308.000000
   121.000000      0.131582    195.329030    392.069824     32.672520    288.000000
   121.500000      0.131582    203.329030    355.837891     28.308905    316.000000
   122.000000      0.131582    211.329030    323.056305     25.865232    312.000000
   122.500000      0.131582    219.329030    295.156433     23.047810    328.000000
   123.000000      0.131582    227.329030    270.666138     20.519123    348.000000
   123.500000      0.131582    235.329030    247.456345     18.444345    360.000000
   124.000000      0.131582    243.329030    232.056290     23.684139    192.000000
   124.500000      0.131582     51.329030  10150.071289   1990.592163     52.000000
   125.000000      0.131582     59.329030   7625.088379   1176.576904     84.000000
   115.000000      0.139137     67.329030   5547.625977    741.332336    112.000000
   115.500000      0.139137     75.329030   4197.150879    582.040039    104.000000
   116.000000      0.139137     83.329030   3270.047852    402.515137    132.000000
   116.500000      0.139137     91.329030   2600.153809    306.431305    144.000000
   117.000000      0.139137     99.329030   2111.457520    252.367386    140.000000
   117.500000      0.139137    107.329030   1737.433960    185.211121    176.000000
   118.000000      0.139137    115.329030   1446.031494    157.775040    168.000000
   118.500000      0.139137    123.329030   1220.012207    123.239876    196.000000
   119.000000      0.139137    131.329030   1037.087158    103.708786    200.000000
   119.500000      0.139137    139.329030    904.501221     92.315254    192.000000
   120.000000      0.139137    147.329030    785.813660     71.144318    244.000000
   120.500000      0.139137    155.329030    684.158508     63.522564    232.000000
   121.000000      0.139137    163.329030    599.431519     51.026943    276.000000
   121.500000      0.139137    171.329030    530.033508     47.598354    248.000000
   122.000000      0.139137    179.329030    477.841003     42.235611    256.000000
   122.500000      0.139137    187.329030    429.335327     34.596786    308.000000
   123.000000      0.139137    195.329030    383.814056     31.984453    288.000000
   123.500000      0.139137    203.329030    348.326172     27.711323    316.000000
   124.000000      0.139137    211.329030    316.247925     25.320105    312.000000
   124.500000      0.139137    219.329030    288.930725     22.561680    328.000000
   125.000000      0.139137    227.329030    264.947296     20.085634    348.000000
   115.000000      0.146692    235.329030    242.241943     18.055676    360.000000
   115.500000      0.146692    243.329030    227.163681     23.184797    192.000000
   116.000000      0.146692     51.329030   9936.778320   1948.762329     52.000000
   116.500000      0.146692     59.329030   7465.040527   1151.881226     84.000000
   117.000000      0.146692     67.329030   5431.491211    725.813232    112.000000
   117.500000      0.146692     75.329030   4108.966309    569.811096    104.000000
   118.000000      0.146692     83.329030   3201.408936    394.066437    132.000000
   118.500000      0.146692     91.329030   2545.301514    299.966492    144.000000
   119.000000      0.146692     99.329030   2066.884277    247.040024    140.000000
   119.500000      0.146692    107.329030   1700.849609    181.311035    176.000000
   120.000000      0.146692    115.329030   1415.594849    154.454178    168.000000
   120.500000      0.146692    123.329030   1194.355957    120.648232    196.000000
   121.000000      0.146692    131.329030   1015.354614    101.535362    200.000000
   121.500000      0.146692    139.329030    885.457458     90.371689    192.000000
   122.000000      0.146692    147.329030    769.293152     69.648468    244.000000
   122.500000      0.146692    155.329030    669.799255     62.189240    232.000000
   123.000000      0.146692    163.329030    586.860962     49.956894    276.000000
   123.500000      0.146692    171.329030    518.931702     46.601391    248.000000
   124.000000      0.146692    179.329030    467.793396     41.347443    256.000000
   124.500000      0.146692    187.329030    420.292145     33.868088    308.000000
   125.000000      0.146692    195.329030    375.766052     31.313816    288.000000
   115.000000      0.154247    203.329030    341.003571     27.128731    316.000000
   115.500000      0.154247    211.329030    309.610474     24.788683    312.000000
   116.000000      0.154247    219.329030    282.861786     22.087803    328.000000
   116.500000      0.154247    227.329030    259.372375     19.662991    348.000000
   117.000000      0.154247    235.329030    237.158417     17.676744    360.000000
   117.500000      0.154247    243.329030    222.394180     22.697998    192.000000
   118.000000      0.154247     51.329030   9728.832031   1907.980713     52.000000
   118.500000      0.154247     59.329030   7308.995117   1127.802856     84.000000
   119.000000      0.154247     67.329030   5318.257324    710.681885    112.000000
   119.500000      0.154247     75.329030   4022.990234    557.888489    104.000000
   120.000000      0.154247     83.329030   3134.486084    385.828461    132.000000
   120.500000      0.154247     91.329030   2491.827393    293.664703    144.000000
   121.000000      0.154247     99.329030   2023.432495    241.846329    140.000000
   121.500000      0.154247    107.329030   1665.182739    177.509033    176.000000
   122.000000      0.154247    115.329030   1385.921387    151.216309    168.000000
   122.500000      0.154247    123.329030   1169.342651    118.121384    196.000000
   123.000000      0.154247    131.329030    994.165222     99.416603    200.000000
   123.500000      0.154247    139.329030    866.891235     88.476768    192.000000
   124.000000      0.154247    147.329030    753.185730     68.190224    244.000000
   124.500000      0.154247    155.329030    655.799255     60.889339    232.000000
   125.000000      0.154247    163.329030    574.604980     48.913609    276.000000
   115.000000      0.161803    171.329030    508.107361     45.629395    248.000000
   115.500000      0.161803    179.329030    457.997009     40.481567    256.000000
   116.000000      0.161803    187.329030    411.475891     33.157619    308.000000
   116.500000      0.161803    195.329030    367.918732     30.659882    288.000000
   117.000000      0.161803    203.329030    333.864624     26.560831    316.000000
   117.500000      0.161803    211.329030    303.138977     24.270531    312.000000
   118.000000      0.161803    219.329030    276.944824     21.625780    328.000000
   118.500000      0.161803    227.329030    253.937134     19.250961    348.000000
   119.000000      0.161803    235.329030    232.201935     17.307302    360.000000
   119.500000      0.161803    243.329030    217.743927     22.223404    192.000000
   120.000000      0.161803     51.329030   9526.073242   1868.216309     52.000000
   120.500000      0.161803     59.329030   7156.840820   1104.324341     84.000000
   121.000000      0.161803     67.329030   5207.837402    695.926147    112.000000
   121.500000      0.161803     75.329030   3939.158203    546.262939    104.000000
   122.000000      0.161803     83.329030   3069.233154    377.796204    132.000000
   122.500000      0.161803     91.329030   2439.692627    287.520630    144.000000
   123.000000      0.161803     99.329030   1981.067993    236.782913    140.000000
   123.500000      0.161803    107.329030   1630.406860    173.801834    176.000000
   124.000000      0.161803    115.329030   1356.989014    148.059601    168.000000
   124.500000      0.161803    123.329030   1144.953735    115.657806    196.000000
   125.000000      0.161803    131.329030    973.503601     97.350220    200.000000
   115.000000      0.169358    139.329030    848.788757     86.629158    192.000000
   115.500000      0.169358    147.329030    737.480652     66.768257    244.000000
   116.000000      0.169358    155.329030    642.148376     59.621918    232.000000
   116.500000      0.169358    163.329030    562.654297     47.896328    276.000000
   117.000000      0.169358    171.329030    497.552429     44.681534    248.000000
   117.500000      0.169358    179.329030    448.445709     39.637337    256.000000
   118.000000      0.169358    187.329030    402.879913     32.464970    308.000000
   118.500000      0.169358    195.329030    360.267090     30.022242    288.000000
   119.000000      0.169358    203.329030    326.903442     26.006994    316.000000
   119.500000      0.169358    211.329030    296.829132     23.765333    312.000000
   120.000000      0.169358    219.329030    271.175293     21.175220    328.000000
   120.500000      0.169358    227.329030    248.637802     18.849226    348.000000
   121.000000      0.169358    235.329030    227.369247     16.947067    360.000000
   121.500000      0.169358    243.329030    213.209717     21.760637    192.000000
   122.000000      0.169358     51.329030   9328.349609   1829.440186     52.000000
   122.500000      0.169358     59.329030   7008.460938   1081.428711     84.000000
   123.000000      0.169358     67.329030   5100.153320    681.536560    112.000000
   123.500000      0.169358     75.329030   3857.407227    534.925964    104.000000
   124.000000      0.169358     83.329030   3005.597900    369.963745    132.000000
   124.500000      0.169358     91.329030   2388.856201    281.529541    144.000000
   125.000000      0.169358     99.329030   1939.760376    231.845963    140.000000
   115.000000      0.176913    107.329030   1596.497437    170.187271    176.000000
   115.500000      0.176913    115.329030   1328.776489    144.981476    168.000000
   116.000000      0.176913    123.329030   1121.171387    113.255417    196.000000
   116.500000      0.176913    131.329030    953.353516     95.335487    200.000000
   117.000000      0.176913    139.329030    831.136902     84.827499    192.000000
   117.500000      0.176913    147.329030    722.166138     65.381897    244.000000
   118.000000      0.176913    155.329030    628.836731     58.386040    232.000000
   118.500000      0.176913    163.329030    550.999573     46.904202    276.000000
   119.000000      0.176913    171.329030    487.258484     43.757145    248.000000
   119.500000      0.176913    179.329030    439.131622     38.814056    256.000000
   120.000000      0.176913    187.329030    394.498108     31.789534    308.000000
   120.500000      0.176913    195.329030    352.805237     29.400402    288.000000
   121.000000      0.176913    203.329030    320.115570     25.467031    316.000000
   121.500000      0.176913    211.329030    290.675476     23.272696    312.000000
   122.000000      0.176913    219.329030    265.549133     20.735878    328.000000
   122.500000      0.176913    227.329030    243.470322     18.457443    348.000000
   123.000000      0.176913    235.329030    222.656342     16.595837    360.000000
   123.500000      0.176913    243.329030    208.788040     21.309355    192.000000
   124.000000      0.176913     51.329030   9135.514648   1791.621826     52.000000
   124.500000      0.176913     59.329030   6863.750000   1059.099731     84.000000
   125.000000      0.176913     67.329030   4995.125000    667.501282    112.000000
   115.000000      0.184468     75.329030   3777.680908    523.869934    104.000000
   115.500000      0.184468     83.329030   2943.536133    362.324493    132.000000
   116.000000      0.184468     91.329030   2339.282471    275.687256    144.000000
   116.500000      0.184468     99.329030   1899.478271    227.030914    140.000000
   117.000000      0.184468    107.329030   1563.428101    166.662048    176.000000
   117.500000      0.184468    115.329030   1301.262695    141.979340    168.000000
   118.000000      0.184468    123.329030   1097.976929    110.912422    196.000000
   118.500000      0.184468    131.329030    933.701355     93.370110    200.000000
   119.000000      0.184468    139.329030    813.922607     83.070656    192.000000
   119.500000      0.184468    147.329030    707.229980     64.029526    244.000000
   120.000000      0.184468    155.329030    615.853271     57.180569    232.000000
   120.500000      0.184468    163.329030    539.633057     45.936649    276.000000
   121.000000      0.184468    171.329030    477.218292     42.855488    248.000000
   121.500000      0.184468    179.329030    430.047974     38.011253    256.000000
   122.000000      0.184468    187.329030    386.323547     31.130873    308.000000
   122.500000      0.184468    195.329030    345.527649     28.793943    288.000000
   123.000000      0.184468    203.329030    313.495544     24.940344    316.000000
   123.500000      0.184468    211.329030    284.674103     22.792170    312.000000
   124.000000      0.184468    219.329030    260.062073     20.307447    328.000000
   124.500000      0.184468    227.329030    238.430832     18.075417    348.000000
   125.000000      0.184468    235.329030    218.060043     16.253241    360.000000
   115.000000      0.192023    243.329030    204.475739     20.869200    192.000000
   115.500000      0.192023     51.329030   8947.434570   1754.735840     52.000000
   116.000000      0.192023     59.329030   6722.598633   1037.319946     84.000000
   116.500000      0.192023     67.329030   4892.674805    653.811157    112.000000
   117.000000      0.192023     75.329030   3699.919189    513.086243    104.000000
   117.500000      0.192023     83.329030   2883.002686    354.872742    132.000000
   118.000000      0.192023     91.329030   2290.934570    269.989349    144.000000
   118.500000      0.192023     99.329030   1860.192505    222.335663    140.000000
   119.000000      0.192023    107.329030   1531.174805    163.223877    176.000000
   119.500000      0.192023    115.329030   1274.428223    139.051605    168.000000
   120.000000      0.192023    123.329030   1075.355591    108.627266    196.000000
   120.500000      0.192023    131.329030    914.532043     91.453316    200.000000
   121.000000      0.192023    139.329030    797.133057     81.357033    192.000000
   121.500000      0.192023    147.329030    692.662415     62.710678    244.000000
   122.000000      0.192023    155.329030    603.189819     56.004791    232.000000
   122.500000      0.192023    163.329030    528.546204     44.992886    276.000000
   123.000000      0.192023    171.329030    467.425934     41.976139    248.000000
   123.500000      0.192023    179.329030    421.188782     37.228207    256.000000
   124.000000      0.192023    187.329030    378.351624     30.488388    308.000000
   124.500000      0.192023    195.329030    338.429138     28.202448    288.000000
   125.000000      0.192023    203.329030    307.039001     24.426737    316.000000
   115.000000      0.199579    211.329030    278.820343     22.323473    312.000000
   115.500000      0.199579    219.329030    254.710281     19.889551    328.000000
   116.000000      0.199579    227.329030    233.515594     17.702782    348.000000
   116.500000      0.199579    235.329030    213.576782     15.919100    360.000000
   117.000000      0.199579    243.329030    200.269638     20.439959    192.000000
   117.500000      0.199579     51.329030   8763.965820   1718.755371     52.000000
   118.000000      0.199579     59.329030   6584.911621   1016.074036     84.000000
   118.500000      0.199579     67.329030   4792.730957    640.455444    112.000000
   119.000000      0.199579     75.329030   3624.063477    502.567352    104.000000
   119.500000      0.199579     83.329030   2823.952637    347.604553    132.000000
   120.000000      0.199579     91.329030   2243.776611    264.431458    144.000000
   120.500000      0.199579     99.329030   1821.874878    217.755844    140.000000
   121.000000      0.199579    107.329030   1499.713501    159.869858    176.000000
   121.500000      0.199579    115.329030   1248.253174    136.195633    168.000000
   122.000000      0.199579    123.329030   1053.289551    106.398392    196.000000
   122.500000      0.199579    131.329030    895.831909     89.583267    200.000000
   123.000000      0.199579    139.329030    780.756287     79.685593    192.000000
   123.500000      0.199579    147.329030    678.452576     61.424271    244.000000
   124.000000      0.199579    155.329030    590.837036     54.857883    232.000000
   124.500000      0.199579    163.329030    517.730591     44.072151    276.000000
   125.000000      0.199579    171.329030    457.872528     41.118111    248.000000
   115.000000      0.207134    179.329030    412.546844     36.464340    256.000000
   115.500000      0.207134    187.329030    370.575409     29.861784    308.000000
   116.000000      0.207134    195.329030    331.504578     27.625351    288.000000
   116.500000      0.207134    203.329030    300.740479     23.925655    316.000000
   117.000000      0.207134    211.329030    273.110443     21.866310    312.000000
   117.500000      0.207134    219.329030    249.489868     19.481909    328.000000
   118.000000      0.207134    227.329030    228.721222     17.339340    348.000000
   118.500000      0.207134    235.329030    209.203461     15.593101    360.000000
   119.000000      0.207134    243.329030    196.166702     20.021208    192.000000
   119.500000      0.207134     51.329030   8584.986328   1683.654785     52.000000
   120.000000      0.207134     59.329030   6450.585938    995.347351     84.000000
   120.500000      0.207134     67.329030   4695.222168    627.425232    112.000000
   121.000000      0.207134     75.329030   3550.061279    492.305054    104.000000
   121.500000      0.207134     83.329030   2766.344971    340.513550    132.000000
   122.000000      0.207134     91.329030   2197.775146    259.010345    144.000000
   122.500000      0.207134     99.329030   1784.496948    213.288284    140.000000
   123.000000      0.207134    107.329030   1469.023315    156.598236    176.000000
   123.500000      0.207134    115.329030   1222.718994    133.409698    168.000000
   124.000000      0.207134    123.329030   1031.762451    104.223793    196.000000
   124.500000      0.207134    131.329030    877.587830     87.758667    200.000000
   125.000000      0.207134    139.329030    764.780579     78.055107    192.000000
   115.000000      0.214689    147.329030    664.590454     60.169216    244.000000
   115.500000      0.214689    155.329030    578.785828     53.738979    232.000000
   116.000000      0.214689    163.329030    507.179352     43.173904    276.000000
   116.500000      0.214689    171.329030    448.552094     40.281128    248.000000
   117.000000      0.214689    179.329030    404.116364     35.719185    256.000000
   117.500000      0.214689    187.329030    362.989655     29.250570    308.000000
   118.000000      0.214689    195.329030    324.748962     27.062431    288.000000
   118.500000      0.214689    203.329030    294.596436     23.436796    316.000000
   119.000000      0.214689    211.329030    267.539673     21.420319    312.000000
   119.500000      0.214689    219.329030    244.396973     19.084221    328.000000
   120.000000      0.214689    227.329030    224.044052     16.984760    348.000000
   120.500000      0.214689    235.329030    204.937057     15.275102    360.000000
   121.000000      0.214689    243.329030    192.164032     19.612642    192.000000
   121.500000      0.214689     51.329030   8410.360352   1649.407227     52.000000
   122.000000      0.214689     59.329030   6319.525879    975.123840     84.000000
   122.500000      0.214689     67.329030   4600.081055    614.711975    112.000000
   123.000000      0.214689     75.329030   3477.862549    482.292694    104.000000
   123.500000      0.214689     83.329030   2710.137695    333.594666    132.000000
   124.000000      0.214689     91.329030   2152.896973    253.721161    144.000000
   124.500000      0.214689     99.329030   1748.032471    208.930023    140.000000
   125.000000      0.214689    107.329030   1439.082153    153.406570    176.000000
   115.000000      0.222244    115.329030   1197.807251    130.691559    168.000000
   115.500000      0.222244    123.329030   1010.760193    102.102203    196.000000
   116.000000      0.222244    131.329030    859.787292     85.978714    200.000000
   116.500000      0.222244    139.329030    749.194580     76.464279    192.000000
   117.000000      0.222244    147.329030    651.065796     58.944668    244.000000
   117.500000      0.222244    155.329030    567.027466     52.647182    232.000000
   118.000000      0.222244    163.329030    496.884338     42.297604    276.000000
   118.500000      0.222244    171.329030    439.458191     39.464558    248.000000
   119.000000      0.222244    179.329030    395.891083     34.992123    256.000000
   119.500000      0.222244    187.329030    355.588837     28.654121    308.000000
   120.000000      0.222244    195.329030    318.157654     26.513157    288.000000
   120.500000      0.222244    203.329030    288.601715     22.959875    316.000000
   121.000000      0.222244    211.329030    262.104431     20.985176    312.000000
   121.500000      0.222244    219.329030    239.427948     18.696198    328.000000
   122.000000      0.222244    227.329030    219.481049     16.638798    348.000000
   122.500000      0.222244    235.329030    200.774261     14.964816    360.000000
   123.000000      0.222244    243.329030    188.258804     19.214075    192.000000
   123.500000      0.222244     51.329030   8239.967773   1615.990112     52.000000
   124.000000      0.222244     59.329030   6191.641602    955.390747     84.000000
   124.500000      0.222244     67.329030   4507.237305    602.304688    112.000000
   125.000000      0.222244     75.329030   3407.412354    472.522858    104.000000
   115.000000      0.229799     83.329030   2655.293945    326.843903    132.000000
   115.500000      0.229799     91.329030   2109.111328    248.561203    144.000000
   116.000000      0.229799     99.329030   1712.454590    204.677414    140.000000
   116.500000      0.229799    107.329030   1409.867188    150.292389    176.000000
   117.000000      0.229799    115.329030   1173.500122    128.039474    168.000000
   117.500000      0.229799    123.329030    990.267517    100.032066    196.000000
   118.000000      0.229799    131.329030    842.417053     84.241821    200.000000
   118.500000      0.229799    139.329030    733.987000     74.912163    192.000000
   119.000000      0.229799    147.329030    637.869141     57.749985    244.000000
   119.500000      0.229799    155.329030    555.554260     51.581963    232.000000
   120.000000      0.229799    163.329030    486.838684     41.442455    276.000000
   120.500000      0.229799    171.329030    430.584076     38.667557    248.000000
   121.000000      0.229799    179.329030    387.865631     34.282818    256.000000
   121.500000      0.229799    187.329030    348.367889     28.072227    308.000000
   122.000000      0.229799    195.329030    311.725800     25.977175    288.000000
   122.500000      0.229799    203.329030    282.752594     22.494562    316.000000
   123.000000      0.229799    211.329030    256.801117     20.560564    312.000000
   123.500000      0.229799    219.329030    234.579544     18.317616    328.000000
   124.000000      0.229799    227.329030    215.028671     16.301285    348.000000
   124.500000      0.229799    235.329030    196.712448     14.662106    360.000000
   125.000000      0.229799    243.329030    184.448120     18.825134    192.000000
